wavelength A B r2
400 0.0209 0.881 0.701
405 0.0232 0.898 0.779
410 0.0252 0.902 0.797
415 0.0266 0.891 0.798
420 0.0275 0.881 0.805
425 0.0281 0.878 0.803
430 0.0291 0.866 0.799
435 0.0304 0.863 0.795
440 0.0306 0.860 0.796
445 0.0291 0.857 0.797
450 0.0271 0.856 0.797
455 0.0257 0.855 0.798
460 0.0253 0.858 0.799
465 0.0249 0.854 0.792
470 0.0242 0.854 0.787
475 0.0228 0.847 0.775
480 0.0241 0.843 0.772
485 0.0202 0.845 0.776
490 0.0189 0.853 0.789
495 0.0172 0.858 0.798
500 0.0156 0.866 0.807
505 0.0141 0.874 0.817
510 0.0126 0.877 0.817
515 0.0113 0.877 0.819
520 0.0103 0.888 0.818
525 0.0093 0.894 0.822
530 0.0085 0.909 0.824
535 0.0077 0.924 0.820
540 0.0070 0.950 0.833
545 0.0064 0.965 0.831
550 0.0057 0.975 0.824
555 0.0049 0.970 0.820
560 0.0043 0.972 0.795
565 0.0039 0.947 0.778
570 0.0036 0.932 0.771
575 0.0036 0.946 0.802
580 0.0035 0.894 0.770
585 0.0036 0.904 0.789
590 0.0037 0.903 0.797
595 0.0036 0.890 0.790
600 0.0034 0.880 0.777
605 0.0033 0.867 0.774
610 0.0035 0.891 0.806
615 0.0038 0.895 0.800
620 0.0041 0.912 0.821
625 0.0042 0.907 0.823
630 0.0045 0.909 0.837
635 0.0048 0.898 0.831
640 0.0050 0.898 0.831
645 0.0052 0.870 0.808
650 0.0054 0.883 0.810
655 0.0058 0.903 0.846
660 0.0072 0.920 0.863
665 0.0100 0.930 0.866
670 0.0127 0.922 0.852
675 0.0140 0.921 0.840
680 0.0128 0.932 0.838
685 0.0093 0.951 0.856
690 0.0054 0.956 0.869
695 0.0029 0.969 0.867
700 0.0018 0.993 0.833